# E (eV) pdos(E) 
 -5.873  0.000E+00
 -5.863  0.288E-03
 -5.853  0.114E-02
 -5.843  0.256E-02
 -5.833  0.454E-02
 -5.823  0.706E-02
 -5.813  0.101E-01
 -5.803  0.137E-01
 -5.793  0.178E-01
 -5.783  0.224E-01
 -5.773  0.276E-01
 -5.763  0.332E-01
 -5.753  0.394E-01
 -5.743  0.460E-01
 -5.733  0.532E-01
 -5.723  0.606E-01
 -5.713  0.688E-01
 -5.703  0.772E-01
 -5.693  0.862E-01
 -5.683  0.956E-01
 -5.673  0.105E+00
 -5.663  0.116E+00
 -5.653  0.126E+00
 -5.643  0.137E+00
 -5.633  0.149E+00
 -5.623  0.161E+00
 -5.613  0.173E+00
 -5.603  0.170E+00
 -5.593  0.164E+00
 -5.583  0.159E+00
 -5.573  0.154E+00
 -5.563  0.151E+00
 -5.553  0.150E+00
 -5.543  0.149E+00
 -5.533  0.149E+00
 -5.523  0.151E+00
 -5.513  0.153E+00
 -5.503  0.155E+00
 -5.493  0.157E+00
 -5.483  0.160E+00
 -5.473  0.162E+00
 -5.463  0.164E+00
 -5.453  0.166E+00
 -5.443  0.168E+00
 -5.433  0.171E+00
 -5.423  0.173E+00
 -5.413  0.175E+00
 -5.403  0.178E+00
 -5.393  0.180E+00
 -5.383  0.182E+00
 -5.373  0.184E+00
 -5.363  0.187E+00
 -5.353  0.189E+00
 -5.343  0.191E+00
 -5.333  0.194E+00
 -5.323  0.196E+00
 -5.313  0.198E+00
 -5.303  0.200E+00
 -5.293  0.204E+00
 -5.283  0.206E+00
 -5.273  0.208E+00
 -5.263  0.210E+00
 -5.253  0.212E+00
 -5.243  0.216E+00
 -5.233  0.218E+00
 -5.223  0.220E+00
 -5.213  0.222E+00
 -5.203  0.224E+00
 -5.193  0.228E+00
 -5.183  0.230E+00
 -5.173  0.232E+00
 -5.163  0.234E+00
 -5.153  0.236E+00
 -5.143  0.238E+00
 -5.133  0.240E+00
 -5.123  0.242E+00
 -5.113  0.244E+00
 -5.103  0.246E+00
 -5.093  0.248E+00
 -5.083  0.248E+00
 -5.073  0.250E+00
 -5.063  0.252E+00
 -5.053  0.252E+00
 -5.043  0.254E+00
 -5.033  0.254E+00
 -5.023  0.256E+00
 -5.013  0.256E+00
 -5.003  0.256E+00
 -4.993  0.258E+00
 -4.983  0.258E+00
 -4.973  0.258E+00
 -4.963  0.258E+00
 -4.953  0.260E+00
 -4.943  0.260E+00
 -4.933  0.260E+00
 -4.923  0.260E+00
 -4.913  0.260E+00
 -4.903  0.260E+00
 -4.893  0.262E+00
 -4.883  0.262E+00
 -4.873  0.264E+00
 -4.863  0.264E+00
 -4.853  0.266E+00
 -4.843  0.268E+00
 -4.833  0.270E+00
 -4.823  0.270E+00
 -4.813  0.272E+00
 -4.803  0.274E+00
 -4.793  0.276E+00
 -4.783  0.276E+00
 -4.773  0.278E+00
 -4.763  0.280E+00
 -4.753  0.280E+00
 -4.743  0.282E+00
 -4.733  0.284E+00
 -4.723  0.286E+00
 -4.713  0.288E+00
 -4.703  0.288E+00
 -4.693  0.290E+00
 -4.683  0.292E+00
 -4.673  0.294E+00
 -4.663  0.294E+00
 -4.653  0.296E+00
 -4.643  0.298E+00
 -4.633  0.300E+00
 -4.623  0.300E+00
 -4.613  0.302E+00
 -4.603  0.304E+00
 -4.593  0.306E+00
 -4.583  0.308E+00
 -4.573  0.308E+00
 -4.563  0.310E+00
 -4.553  0.312E+00
 -4.543  0.314E+00
 -4.533  0.316E+00
 -4.523  0.316E+00
 -4.513  0.318E+00
 -4.503  0.320E+00
 -4.493  0.322E+00
 -4.483  0.324E+00
 -4.473  0.326E+00
 -4.463  0.326E+00
 -4.453  0.328E+00
 -4.443  0.330E+00
 -4.433  0.332E+00
 -4.423  0.334E+00
 -4.413  0.336E+00
 -4.403  0.336E+00
 -4.393  0.338E+00
 -4.383  0.340E+00
 -4.373  0.342E+00
 -4.363  0.344E+00
 -4.353  0.346E+00
 -4.343  0.348E+00
 -4.333  0.350E+00
 -4.323  0.350E+00
 -4.313  0.352E+00
 -4.303  0.354E+00
 -4.293  0.356E+00
 -4.283  0.358E+00
 -4.273  0.358E+00
 -4.263  0.360E+00
 -4.253  0.362E+00
 -4.243  0.362E+00
 -4.233  0.364E+00
 -4.223  0.366E+00
 -4.213  0.368E+00
 -4.203  0.370E+00
 -4.193  0.370E+00
 -4.183  0.372E+00
 -4.173  0.374E+00
 -4.163  0.376E+00
 -4.153  0.378E+00
 -4.143  0.382E+00
 -4.133  0.384E+00
 -4.123  0.386E+00
 -4.113  0.388E+00
 -4.103  0.390E+00
 -4.093  0.392E+00
 -4.083  0.394E+00
 -4.073  0.396E+00
 -4.063  0.398E+00
 -4.053  0.402E+00
 -4.043  0.404E+00
 -4.033  0.406E+00
 -4.023  0.408E+00
 -4.013  0.412E+00
 -4.003  0.414E+00
 -3.993  0.416E+00
 -3.983  0.420E+00
 -3.973  0.422E+00
 -3.963  0.424E+00
 -3.953  0.428E+00
 -3.943  0.430E+00
 -3.933  0.432E+00
 -3.923  0.436E+00
 -3.913  0.438E+00
 -3.903  0.442E+00
 -3.893  0.446E+00
 -3.883  0.450E+00
 -3.873  0.454E+00
 -3.863  0.458E+00
 -3.853  0.462E+00
 -3.843  0.468E+00
 -3.833  0.472E+00
 -3.823  0.480E+00
 -3.813  0.490E+00
 -3.803  0.500E+00
 -3.793  0.510E+00
 -3.783  0.520E+00
 -3.773  0.528E+00
 -3.763  0.536E+00
 -3.753  0.544E+00
 -3.743  0.552E+00
 -3.733  0.560E+00
 -3.723  0.566E+00
 -3.713  0.572E+00
 -3.703  0.578E+00
 -3.693  0.584E+00
 -3.683  0.590E+00
 -3.673  0.594E+00
 -3.663  0.598E+00
 -3.653  0.602E+00
 -3.643  0.606E+00
 -3.633  0.610E+00
 -3.623  0.612E+00
 -3.613  0.614E+00
 -3.603  0.616E+00
 -3.593  0.618E+00
 -3.583  0.620E+00
 -3.573  0.620E+00
 -3.563  0.620E+00
 -3.553  0.620E+00
 -3.543  0.620E+00
 -3.533  0.618E+00
 -3.523  0.618E+00
 -3.513  0.616E+00
 -3.503  0.614E+00
 -3.493  0.612E+00
 -3.483  0.608E+00
 -3.473  0.606E+00
 -3.463  0.602E+00
 -3.453  0.598E+00
 -3.443  0.592E+00
 -3.433  0.588E+00
 -3.423  0.582E+00
 -3.413  0.576E+00
 -3.403  0.570E+00
 -3.393  0.564E+00
 -3.383  0.558E+00
 -3.373  0.552E+00
 -3.363  0.562E+00
 -3.353  0.570E+00
 -3.343  0.580E+00
 -3.333  0.588E+00
 -3.323  0.598E+00
 -3.313  0.604E+00
 -3.303  0.612E+00
 -3.293  0.616E+00
 -3.283  0.620E+00
 -3.273  0.622E+00
 -3.263  0.624E+00
 -3.253  0.624E+00
 -3.243  0.624E+00
 -3.233  0.622E+00
 -3.223  0.620E+00
 -3.213  0.616E+00
 -3.203  0.610E+00
 -3.193  0.604E+00
 -3.183  0.598E+00
 -3.173  0.590E+00
 -3.163  0.580E+00
 -3.153  0.570E+00
 -3.143  0.564E+00
 -3.133  0.558E+00
 -3.123  0.554E+00
 -3.113  0.548E+00
 -3.103  0.544E+00
 -3.093  0.538E+00
 -3.083  0.534E+00
 -3.073  0.530E+00
 -3.063  0.526E+00
 -3.053  0.520E+00
 -3.043  0.516E+00
 -3.033  0.512E+00
 -3.023  0.508E+00
 -3.013  0.504E+00
 -3.003  0.500E+00
 -2.993  0.498E+00
 -2.983  0.494E+00
 -2.973  0.490E+00
 -2.963  0.486E+00
 -2.953  0.482E+00
 -2.943  0.480E+00
 -2.933  0.476E+00
 -2.923  0.474E+00
 -2.913  0.470E+00
 -2.903  0.468E+00
 -2.893  0.464E+00
 -2.883  0.462E+00
 -2.873  0.460E+00
 -2.863  0.456E+00
 -2.853  0.454E+00
 -2.843  0.452E+00
 -2.833  0.450E+00
 -2.823  0.448E+00
 -2.813  0.446E+00
 -2.803  0.444E+00
 -2.793  0.442E+00
 -2.783  0.440E+00
 -2.773  0.440E+00
 -2.763  0.438E+00
 -2.753  0.436E+00
 -2.743  0.436E+00
 -2.733  0.434E+00
 -2.723  0.434E+00
 -2.713  0.432E+00
 -2.703  0.432E+00
 -2.693  0.430E+00
 -2.683  0.430E+00
 -2.673  0.428E+00
 -2.663  0.426E+00
 -2.653  0.424E+00
 -2.643  0.422E+00
 -2.633  0.420E+00
 -2.623  0.418E+00
 -2.613  0.416E+00
 -2.603  0.420E+00
 -2.593  0.422E+00
 -2.583  0.424E+00
 -2.573  0.426E+00
 -2.563  0.426E+00
 -2.553  0.428E+00
 -2.543  0.428E+00
 -2.533  0.430E+00
 -2.523  0.430E+00
 -2.513  0.430E+00
 -2.503  0.430E+00
 -2.493  0.428E+00
 -2.483  0.428E+00
 -2.473  0.426E+00
 -2.463  0.424E+00
 -2.453  0.422E+00
 -2.443  0.420E+00
 -2.433  0.418E+00
 -2.423  0.416E+00
 -2.413  0.412E+00
 -2.403  0.408E+00
 -2.393  0.404E+00
 -2.383  0.400E+00
 -2.373  0.396E+00
 -2.363  0.392E+00
 -2.353  0.386E+00
 -2.343  0.382E+00
 -2.333  0.376E+00
 -2.323  0.370E+00
 -2.313  0.364E+00
 -2.303  0.358E+00
 -2.293  0.350E+00
 -2.283  0.344E+00
 -2.273  0.336E+00
 -2.263  0.328E+00
 -2.253  0.320E+00
 -2.243  0.312E+00
 -2.233  0.302E+00
 -2.223  0.294E+00
 -2.213  0.284E+00
 -2.203  0.274E+00
 -2.193  0.264E+00
 -2.183  0.151E+00
 -2.173  0.143E+00
 -2.163  0.136E+00
 -2.153  0.129E+00
 -2.143  0.122E+00
 -2.133  0.115E+00
 -2.123  0.108E+00
 -2.113  0.102E+00
 -2.103  0.958E-01
 -2.093  0.896E-01
 -2.083  0.838E-01
 -2.073  0.780E-01
 -2.063  0.724E-01
 -2.053  0.670E-01
 -2.043  0.618E-01
 -2.033  0.566E-01
 -2.023  0.518E-01
 -2.013  0.470E-01
 -2.003  0.426E-01
 -1.993  0.382E-01
 -1.983  0.338E-01
 -1.973  0.298E-01
 -1.963  0.260E-01
 -1.953  0.222E-01
 -1.943  0.186E-01
 -1.933  0.152E-01
 -1.923  0.120E-01
 -1.913  0.886E-02
 -1.903  0.594E-02
 -1.893  0.318E-02
 -1.883  0.568E-03
 -1.873  0.000E+00
 -1.863  0.000E+00
 -1.853  0.000E+00
 -1.843  0.000E+00
 -1.833  0.000E+00
 -1.823  0.000E+00
 -1.813  0.000E+00
 -1.803  0.000E+00
 -1.793  0.000E+00
 -1.783  0.000E+00
 -1.773  0.000E+00
 -1.763  0.000E+00
 -1.753  0.000E+00
 -1.743  0.000E+00
 -1.733  0.000E+00
 -1.723  0.000E+00
 -1.713  0.000E+00
 -1.703  0.000E+00
 -1.693  0.000E+00
 -1.683  0.000E+00
 -1.673  0.000E+00
 -1.663  0.000E+00
 -1.653  0.000E+00
 -1.643  0.000E+00
 -1.633  0.000E+00
 -1.623  0.000E+00
 -1.613  0.000E+00
 -1.603  0.000E+00
 -1.593  0.504E-03
 -1.583  0.246E-02
 -1.573  0.448E-02
 -1.563  0.658E-02
 -1.553  0.876E-02
 -1.543  0.110E-01
 -1.533  0.134E-01
 -1.523  0.158E-01
 -1.513  0.183E-01
 -1.503  0.208E-01
 -1.493  0.234E-01
 -1.483  0.262E-01
 -1.473  0.290E-01
 -1.463  0.318E-01
 -1.453  0.348E-01
 -1.443  0.378E-01
 -1.433  0.410E-01
 -1.423  0.440E-01
 -1.413  0.474E-01
 -1.403  0.506E-01
 -1.393  0.540E-01
 -1.383  0.576E-01
 -1.373  0.610E-01
 -1.363  0.646E-01
 -1.353  0.684E-01
 -1.343  0.720E-01
 -1.333  0.760E-01
 -1.323  0.798E-01
 -1.313  0.838E-01
 -1.303  0.878E-01
 -1.293  0.920E-01
 -1.283  0.962E-01
 -1.273  0.100E+00
 -1.263  0.105E+00
 -1.253  0.109E+00
 -1.243  0.114E+00
 -1.233  0.118E+00
 -1.223  0.123E+00
 -1.213  0.127E+00
 -1.203  0.132E+00
 -1.193  0.137E+00
 -1.183  0.142E+00
 -1.173  0.147E+00
 -1.163  0.152E+00
 -1.153  0.157E+00
 -1.143  0.162E+00
 -1.133  0.167E+00
 -1.123  0.270E+00
 -1.113  0.280E+00
 -1.103  0.290E+00
 -1.093  0.298E+00
 -1.083  0.308E+00
 -1.073  0.316E+00
 -1.063  0.324E+00
 -1.053  0.332E+00
 -1.043  0.340E+00
 -1.033  0.348E+00
 -1.023  0.354E+00
 -1.013  0.362E+00
 -1.003  0.368E+00
 -0.993  0.374E+00
 -0.983  0.380E+00
 -0.973  0.386E+00
 -0.963  0.390E+00
 -0.953  0.396E+00
 -0.943  0.400E+00
 -0.933  0.404E+00
 -0.923  0.408E+00
 -0.913  0.412E+00
 -0.903  0.416E+00
 -0.893  0.418E+00
 -0.883  0.422E+00
 -0.873  0.424E+00
 -0.863  0.426E+00
 -0.853  0.428E+00
 -0.843  0.430E+00
 -0.833  0.430E+00
 -0.823  0.432E+00
 -0.813  0.436E+00
 -0.803  0.442E+00
 -0.793  0.450E+00
 -0.783  0.476E+00
 -0.773  0.500E+00
 -0.763  0.520E+00
 -0.753  0.538E+00
 -0.743  0.554E+00
 -0.733  0.568E+00
 -0.723  0.584E+00
 -0.713  0.598E+00
 -0.703  0.610E+00
 -0.693  0.622E+00
 -0.683  0.630E+00
 -0.673  0.636E+00
 -0.663  0.642E+00
 -0.653  0.644E+00
 -0.643  0.646E+00
 -0.633  0.646E+00
 -0.623  0.644E+00
 -0.613  0.640E+00
 -0.603  0.634E+00
 -0.593  0.624E+00
 -0.583  0.614E+00
 -0.573  0.604E+00
 -0.563  0.594E+00
 -0.553  0.588E+00
 -0.543  0.580E+00
 -0.533  0.570E+00
 -0.523  0.560E+00
 -0.513  0.548E+00
 -0.503  0.536E+00
 -0.493  0.522E+00
 -0.483  0.506E+00
 -0.473  0.490E+00
 -0.463  0.472E+00
 -0.453  0.454E+00
 -0.443  0.434E+00
 -0.433  0.412E+00
 -0.423  0.390E+00
 -0.413  0.378E+00
 -0.403  0.372E+00
 -0.393  0.366E+00
 -0.383  0.360E+00
 -0.373  0.356E+00
 -0.363  0.350E+00
 -0.353  0.344E+00
 -0.343  0.340E+00
 -0.333  0.334E+00
 -0.323  0.330E+00
 -0.313  0.324E+00
 -0.303  0.320E+00
 -0.293  0.316E+00
 -0.283  0.310E+00
 -0.273  0.306E+00
 -0.263  0.302E+00
 -0.253  0.298E+00
 -0.243  0.294E+00
 -0.233  0.290E+00
 -0.223  0.288E+00
 -0.213  0.284E+00
 -0.203  0.280E+00
 -0.193  0.278E+00
 -0.183  0.274E+00
 -0.173  0.272E+00
 -0.163  0.268E+00
 -0.153  0.266E+00
 -0.143  0.262E+00
 -0.133  0.260E+00
 -0.123  0.258E+00
 -0.113  0.256E+00
 -0.103  0.254E+00
 -0.093  0.252E+00
 -0.083  0.250E+00
 -0.073  0.248E+00
 -0.063  0.246E+00
 -0.053  0.244E+00
 -0.043  0.244E+00
 -0.033  0.242E+00
 -0.023  0.240E+00
 -0.013  0.238E+00
 -0.003  0.236E+00
  0.007  0.236E+00
  0.017  0.234E+00
  0.027  0.232E+00
  0.037  0.230E+00
  0.047  0.230E+00
  0.057  0.228E+00
  0.067  0.226E+00
  0.077  0.224E+00
  0.087  0.224E+00
  0.097  0.222E+00
  0.107  0.220E+00
  0.117  0.220E+00
  0.127  0.218E+00
  0.137  0.216E+00
  0.147  0.216E+00
  0.157  0.214E+00
  0.167  0.212E+00
  0.177  0.212E+00
  0.187  0.210E+00
  0.197  0.208E+00
  0.207  0.208E+00
  0.217  0.206E+00
  0.227  0.204E+00
  0.237  0.204E+00
  0.247  0.202E+00
  0.257  0.200E+00
  0.267  0.200E+00
  0.277  0.198E+00
  0.287  0.197E+00
  0.297  0.196E+00
  0.307  0.195E+00
  0.317  0.193E+00
  0.327  0.192E+00
  0.337  0.191E+00
  0.347  0.190E+00
  0.357  0.189E+00
  0.367  0.187E+00
  0.377  0.186E+00
  0.387  0.185E+00
  0.397  0.184E+00
  0.407  0.182E+00
  0.417  0.181E+00
  0.427  0.180E+00
  0.437  0.179E+00
  0.447  0.178E+00
  0.457  0.176E+00
  0.467  0.175E+00
  0.477  0.174E+00
  0.487  0.173E+00
  0.497  0.172E+00
  0.507  0.171E+00
  0.517  0.169E+00
  0.527  0.168E+00
  0.537  0.167E+00
  0.547  0.166E+00
  0.557  0.165E+00
  0.567  0.164E+00
  0.577  0.163E+00
  0.587  0.162E+00
  0.597  0.161E+00
  0.607  0.160E+00
  0.617  0.158E+00
  0.627  0.157E+00
  0.637  0.156E+00
  0.647  0.155E+00
  0.657  0.154E+00
  0.667  0.153E+00
  0.677  0.152E+00
  0.687  0.151E+00
  0.697  0.150E+00
  0.707  0.149E+00
  0.717  0.148E+00
  0.727  0.147E+00
  0.737  0.146E+00
  0.747  0.144E+00
  0.757  0.142E+00
  0.767  0.140E+00
  0.777  0.138E+00
  0.787  0.137E+00
  0.797  0.135E+00
  0.807  0.133E+00
  0.817  0.131E+00
  0.827  0.130E+00
  0.837  0.128E+00
  0.847  0.127E+00
  0.857  0.125E+00
  0.867  0.124E+00
  0.877  0.122E+00
  0.887  0.121E+00
  0.897  0.120E+00
  0.907  0.118E+00
  0.917  0.117E+00
  0.927  0.116E+00
  0.937  0.115E+00
  0.947  0.113E+00
  0.957  0.112E+00
  0.967  0.111E+00
  0.977  0.110E+00
  0.987  0.109E+00
  0.997  0.109E+00
  1.007  0.108E+00
  1.017  0.107E+00
  1.027  0.106E+00
  1.037  0.106E+00
  1.047  0.105E+00
  1.057  0.104E+00
  1.067  0.104E+00
  1.077  0.103E+00
  1.087  0.103E+00
  1.097  0.102E+00
  1.107  0.102E+00
  1.117  0.102E+00
  1.127  0.101E+00
  1.137  0.101E+00
  1.147  0.100E+00
  1.157  0.100E+00
  1.167  0.996E-01
  1.177  0.992E-01
  1.187  0.990E-01
  1.197  0.986E-01
  1.207  0.982E-01
  1.217  0.978E-01
  1.227  0.974E-01
  1.237  0.970E-01
  1.247  0.966E-01
  1.257  0.962E-01
  1.267  0.960E-01
  1.277  0.956E-01
  1.287  0.952E-01
  1.297  0.948E-01
  1.307  0.944E-01
  1.317  0.940E-01
  1.327  0.938E-01
  1.337  0.934E-01
  1.347  0.930E-01
  1.357  0.926E-01
  1.367  0.922E-01
  1.377  0.920E-01
  1.387  0.916E-01
  1.397  0.912E-01
  1.407  0.908E-01
  1.417  0.904E-01
  1.427  0.902E-01
  1.437  0.898E-01
  1.447  0.894E-01
  1.457  0.890E-01
  1.467  0.888E-01
  1.477  0.884E-01
  1.487  0.880E-01
  1.497  0.876E-01
  1.507  0.874E-01
  1.517  0.870E-01
  1.527  0.866E-01
  1.537  0.862E-01
  1.547  0.858E-01
  1.557  0.856E-01
  1.567  0.852E-01
  1.577  0.848E-01
  1.587  0.844E-01
  1.597  0.842E-01
  1.607  0.838E-01
  1.617  0.834E-01
  1.627  0.830E-01
  1.637  0.826E-01
  1.647  0.824E-01
  1.657  0.820E-01
  1.667  0.816E-01
  1.677  0.812E-01
  1.687  0.808E-01
  1.697  0.804E-01
  1.707  0.802E-01
  1.717  0.798E-01
  1.727  0.794E-01
  1.737  0.790E-01
  1.747  0.786E-01
  1.757  0.784E-01
  1.767  0.784E-01
  1.777  0.782E-01
  1.787  0.784E-01
  1.797  0.788E-01
  1.807  0.798E-01
  1.817  0.812E-01
  1.827  0.836E-01
  1.837  0.866E-01
  1.847  0.906E-01
  1.857  0.952E-01
  1.867  0.990E-01
  1.877  0.102E+00
  1.887  0.104E+00
  1.897  0.104E+00
  1.907  0.104E+00
  1.917  0.102E+00
  1.927  0.100E+00
  1.937  0.101E+00
  1.947  0.102E+00
  1.957  0.103E+00
  1.967  0.104E+00
  1.977  0.105E+00
  1.987  0.106E+00
  1.997  0.107E+00
  2.007  0.108E+00
  2.017  0.109E+00
  2.027  0.110E+00
  2.037  0.110E+00
  2.047  0.111E+00
  2.057  0.112E+00
  2.067  0.113E+00
  2.077  0.113E+00
  2.087  0.114E+00
  2.097  0.114E+00
  2.107  0.115E+00
  2.117  0.115E+00
  2.127  0.115E+00
  2.137  0.116E+00
  2.147  0.116E+00
  2.157  0.116E+00
  2.167  0.116E+00
  2.177  0.116E+00
  2.187  0.115E+00
  2.197  0.115E+00
  2.207  0.114E+00
  2.217  0.114E+00
  2.227  0.113E+00
  2.237  0.112E+00
  2.247  0.112E+00
  2.257  0.111E+00
  2.267  0.110E+00
  2.277  0.109E+00
  2.287  0.107E+00
  2.297  0.106E+00
  2.307  0.104E+00
  2.317  0.104E+00
  2.327  0.103E+00
  2.337  0.104E+00
  2.347  0.106E+00
  2.357  0.107E+00
  2.367  0.108E+00
  2.377  0.107E+00
  2.387  0.105E+00
  2.397  0.100E+00
  2.407  0.986E-01
  2.417  0.982E-01
  2.427  0.978E-01
  2.437  0.976E-01
  2.447  0.972E-01
  2.457  0.970E-01
  2.467  0.966E-01
  2.477  0.964E-01
  2.487  0.960E-01
  2.497  0.958E-01
  2.507  0.956E-01
  2.517  0.952E-01
  2.527  0.950E-01
  2.537  0.948E-01
  2.547  0.946E-01
  2.557  0.942E-01
  2.567  0.940E-01
  2.577  0.938E-01
  2.587  0.936E-01
  2.597  0.934E-01
  2.607  0.932E-01
  2.617  0.930E-01
  2.627  0.928E-01
  2.637  0.926E-01
  2.647  0.924E-01
  2.657  0.922E-01
  2.667  0.922E-01
  2.677  0.920E-01
  2.687  0.918E-01
  2.697  0.916E-01
  2.707  0.916E-01
  2.717  0.914E-01
  2.727  0.914E-01
  2.737  0.912E-01
  2.747  0.912E-01
  2.757  0.910E-01
  2.767  0.910E-01
  2.777  0.910E-01
  2.787  0.908E-01
  2.797  0.908E-01
  2.807  0.908E-01
  2.817  0.908E-01
  2.827  0.912E-01
  2.837  0.918E-01
  2.847  0.926E-01
  2.857  0.938E-01
  2.867  0.950E-01
  2.877  0.926E-01
  2.887  0.942E-01
  2.897  0.962E-01
  2.907  0.880E-01
  2.917  0.878E-01
  2.927  0.878E-01
  2.937  0.876E-01
  2.947  0.874E-01
  2.957  0.874E-01
  2.967  0.872E-01
  2.977  0.872E-01
  2.987  0.870E-01
  2.997  0.870E-01
  3.007  0.868E-01
  3.017  0.868E-01
  3.027  0.866E-01
  3.037  0.866E-01
  3.047  0.866E-01
  3.057  0.864E-01
  3.067  0.864E-01
  3.077  0.864E-01
  3.087  0.864E-01
  3.097  0.864E-01
  3.107  0.862E-01
  3.117  0.862E-01
  3.127  0.862E-01
  3.137  0.862E-01
  3.147  0.862E-01
  3.157  0.862E-01
  3.167  0.862E-01
  3.177  0.862E-01
  3.187  0.862E-01
  3.197  0.862E-01
  3.207  0.862E-01
  3.217  0.862E-01
  3.227  0.862E-01
  3.237  0.862E-01
  3.247  0.862E-01
  3.257  0.862E-01
  3.267  0.862E-01
  3.277  0.862E-01
  3.287  0.862E-01
  3.297  0.862E-01
  3.307  0.864E-01
  3.317  0.864E-01
  3.327  0.864E-01
  3.337  0.862E-01
  3.347  0.858E-01
  3.357  0.856E-01
  3.367  0.852E-01
  3.377  0.848E-01
  3.387  0.844E-01
  3.397  0.842E-01
  3.407  0.838E-01
  3.417  0.834E-01
  3.427  0.830E-01
  3.437  0.826E-01
  3.447  0.822E-01
  3.457  0.818E-01
  3.467  0.814E-01
  3.477  0.808E-01
  3.487  0.804E-01
  3.497  0.800E-01
  3.507  0.796E-01
  3.517  0.792E-01
  3.527  0.786E-01
  3.537  0.782E-01
  3.547  0.778E-01
  3.557  0.772E-01
  3.567  0.768E-01
  3.577  0.762E-01
  3.587  0.758E-01
  3.597  0.754E-01
  3.607  0.748E-01
  3.617  0.744E-01
  3.627  0.738E-01
  3.637  0.734E-01
  3.647  0.728E-01
  3.657  0.724E-01
  3.667  0.718E-01
  3.677  0.714E-01
  3.687  0.710E-01
  3.697  0.704E-01
  3.707  0.700E-01
  3.717  0.694E-01
  3.727  0.690E-01
  3.737  0.684E-01
  3.747  0.680E-01
  3.757  0.674E-01
  3.767  0.670E-01
  3.777  0.664E-01
  3.787  0.660E-01
  3.797  0.656E-01
  3.807  0.650E-01
  3.817  0.646E-01
  3.827  0.640E-01
  3.837  0.636E-01
  3.847  0.630E-01
  3.857  0.626E-01
  3.867  0.620E-01
  3.877  0.616E-01
  3.887  0.610E-01
  3.897  0.606E-01
  3.907  0.600E-01
  3.917  0.596E-01
  3.927  0.590E-01
  3.937  0.586E-01
  3.947  0.580E-01
  3.957  0.576E-01
  3.967  0.570E-01
  3.977  0.566E-01
  3.987  0.560E-01
  3.997  0.556E-01
  4.007  0.550E-01
  4.017  0.546E-01
  4.027  0.540E-01
  4.037  0.536E-01
  4.047  0.528E-01
  4.057  0.520E-01
  4.067  0.512E-01
  4.077  0.504E-01
  4.087  0.496E-01
  4.097  0.488E-01
  4.107  0.482E-01
  4.117  0.474E-01
  4.127  0.468E-01
  4.137  0.460E-01
  4.147  0.454E-01
  4.157  0.446E-01
  4.167  0.440E-01
  4.177  0.434E-01
  4.187  0.428E-01
  4.197  0.422E-01
  4.207  0.416E-01
  4.217  0.410E-01
  4.227  0.404E-01
  4.237  0.398E-01
  4.247  0.394E-01
  4.257  0.388E-01
  4.267  0.384E-01
  4.277  0.378E-01
  4.287  0.374E-01
  4.297  0.370E-01
  4.307  0.366E-01
  4.317  0.362E-01
  4.327  0.358E-01
  4.337  0.356E-01
  4.347  0.352E-01
  4.357  0.348E-01
  4.367  0.346E-01
  4.377  0.342E-01
  4.387  0.340E-01
  4.397  0.338E-01
  4.407  0.334E-01
  4.417  0.332E-01
  4.427  0.328E-01
  4.437  0.318E-01
  4.447  0.310E-01
  4.457  0.302E-01
  4.467  0.294E-01
  4.477  0.286E-01
  4.487  0.278E-01
  4.497  0.270E-01
  4.507  0.262E-01
  4.517  0.254E-01
  4.527  0.248E-01
  4.537  0.240E-01
  4.547  0.234E-01
  4.557  0.226E-01
  4.567  0.220E-01
  4.577  0.214E-01
  4.587  0.208E-01
  4.597  0.202E-01
  4.607  0.195E-01
  4.617  0.189E-01
  4.627  0.184E-01
